File: 2021pipeline/data_test_fsed.csv
,Capacity dV CCCT,Charge time dV CCCT,Energy dV CCCT,Entropy dV CCCT Shannon,Frechet Distance CC curve,Hausdorff Distance CC curve,Lagged Cumulated Discharge Capacity,Lagged Cumulated Discharge Energy,Lagged Pseudo Resistace,Lagged cycle time,Mean DV CCCV,Slope CCCV-CCCT,Group,Discharge_Q
0,479.763,0.0050463,479.763,8.71425,0.846952,6.62477,21274,66784.5,0.0253945,2.36218,0.464796,17.8245,8003.0,638.181
1,478.333,0.00504629,478.333,8.72451,0.846952,6.64276,21912.2,68794.6,0.02698,2.43287,0.462726,17.9039,8003.0,637.748
2,474.428,0.00504629,474.428,8.69,0.846951,6.60025,22549.9,70802.5,0.0235705,2.50346,0.465475,17.8721,8003.0,635.898
3,473.835,0.00510417,473.835,8.70736,0.84697,6.67026,23185.8,72804.4,0.0239722,2.57373,0.463926,17.6307,8003.0,632.342
4,472.368,0.00505786,472.368,8.72792,0.846955,6.62032,23818.2,74797.9,0.0260775,2.64374,0.464707,17.8472,8003.0,631.715
5,469.697,0.00504629,469.697,8.67596,0.846952,6.61573,24449.9,76787.8,0.0239722,2.71363,0.464314,17.8404,8003.0,629.66
6,467.046,0.00513889,467.046,8.71768,0.846981,6.67887,25079.6,78770.8,0.024473,2.78326,0.463747,17.5586,8003.0,626.662
7,465.791,0.00508102,465.791,8.69697,0.846963,6.63671,25706.2,80746.1,0.027682,2.85258,0.464894,17.7345,8003.0,625.668
8,463.124,0.00506944,463.124,8.71081,0.846959,6.64337,26331.9,82716.8,0.0268023,2.92176,0.46468,17.7513,8003.0,623.803
9,460.851,0.00505786,460.851,8.69697,0.846955,6.61825,26955.7,84680.2,0.026502,2.99069,0.465209,17.7919,8003.0,621.863
10,458.196,0.00516204,458.196,8.73132,0.846988,6.69093,27577.5,86637,0.0277047,3.05938,0.465776,17.4801,8003.0,618.447
11,456.122,0.00504629,456.122,8.71081,0.846951,6.59631,28196,88585.6,0.0309128,3.12772,0.466111,17.8009,8003.0,617.397
12,452.423,0.00506944,452.423,8.71425,0.846959,6.61148,28813.4,90528.2,0.0284068,3.19589,0.467147,17.7512,8003.0,613.829
13,447.666,0.00512731,447.666,8.73132,0.846977,6.64374,29427.2,92459.2,0.0286918,3.26363,0.467193,17.5591,8003.0,608.925
14,445.62,0.00509259,445.62,8.7039,0.846966,6.6414,30036.1,94376,0.03202,3.33083,0.465262,17.71,8003.0,607.56
15,443.344,0.00523148,443.344,8.73809,0.847009,6.71481,30643.7,96286.6,0.0299137,3.39783,0.467136,17.2333,8003.0,604.451
16,442.742,0.00510416,442.742,8.70736,0.84697,6.62388,31248.2,98193,0.0336128,3.46453,0.467591,17.6386,8003.0,604.359
17,440.68,0.00509259,440.68,8.74147,0.846966,6.6274,31852.5,100095,0.030003,3.53118,0.466764,17.6865,8003.0,602.505
18,437.188,0.00525463,437.188,8.73471,0.847015,6.71819,32455,101990,0.0304035,3.5976,0.467688,17.1651,8003.0,599.499
19,437.798,0.00512731,437.798,8.73471,0.846977,6.65941,33054.5,103881,0.0346153,3.66369,0.466627,17.6138,8003.0,599.627
20,435.745,0.00508101,435.745,8.69697,0.846963,6.60042,33654.1,105767,0.031306,3.72976,0.468498,17.7031,8003.0,597.947
21,433.492,0.00515046,433.492,8.74147,0.846984,6.65857,34252.1,107647,0.0321083,3.79564,0.467199,17.5114,8003.0,595.618
22,431.43,0.00508101,431.43,8.69697,0.846963,6.59235,34847.7,109521,0.0347155,3.86127,0.468282,17.7266,8003.0,594.161
23,429.785,0.00511573,429.785,8.7039,0.846973,6.65161,35441.9,111388,0.0327103,3.92669,0.466766,17.6614,8003.0,592.288
24,426.482,0.00524306,426.482,8.75154,0.847012,6.72106,36034.2,113249,0.0330107,3.99189,0.467848,17.2563,8003.0,589.338
25,426.081,0.00509259,426.081,8.70044,0.846966,6.61465,36623.5,115105,0.0386195,4.05677,0.467942,17.655,8003.0,588.849
26,424.226,0.00509259,424.226,8.7211,0.846966,6.62355,37212.3,116956,0.0344078,4.12157,0.466568,17.6865,8003.0,587.163
27,420.957,0.00524306,420.957,8.73471,0.847012,6.71963,37799.5,118800,0.0354115,4.18618,0.467202,17.1953,8003.0,584.888
28,421.567,0.00512731,421.567,8.71081,0.846977,6.66332,38384.4,120643,0.0391202,4.25051,0.466764,17.5747,8003.0,584.616
29,419.729,0.00509258,419.729,8.7039,0.846966,6.6105,38969,122480,0.03511,4.31482,0.468567,17.655,8003.0,582.997
30,419.111,0.0053125,419.111,8.74483,0.847032,6.74906,39552,124311,0.0353103,4.37893,0.466598,17.0463,8003.0,582.471
31,419.737,0.00513888,419.737,8.70044,0.84698,6.65397,40134.5,126152,0.0395053,4.44303,0.466575,17.5119,8003.0,582.67
32,418.103,0.00515046,418.103,8.73132,0.846984,6.66152,40717.2,127985,0.0343922,4.50713,0.466496,17.5658,8003.0,581.125
33,413.787,0.00527778,413.787,8.73809,0.847022,6.72539,41298.3,129812,0.0351948,4.57104,0.467024,17.0672,8003.0,578.701
34,415.433,0.00512731,415.433,8.74147,0.846977,6.64137,41877,131640,0.0404077,4.63465,0.467123,17.5748,8003.0,580.268
35,413.789,0.00513888,413.789,8.73132,0.846981,6.65954,42457.2,133464,0.0289778,4.69835,0.467902,17.5275,8003.0,577.609
36,411.916,0.00512731,411.916,8.7211,0.846977,6.65219,43034.9,135279,0.0359957,4.76181,0.467655,17.5592,8003.0,575.997
37,409.665,0.00519676,409.665,8.71768,0.846998,6.67464,43610.9,137087,0.0359957,4.82508,0.467846,17.3635,8003.0,574.076
38,408.631,0.00511573,408.631,8.7211,0.846973,6.64347,44184.9,138893,0.0411097,4.88813,0.466999,17.5988,8003.0,573.083
39,407.199,0.00510416,407.199,8.71081,0.84697,6.6129,44758,140691,0.0369982,4.95105,0.468177,17.6701,8003.0,571.562
40,404.116,0.00521991,404.116,8.73809,0.847005,6.69786,45329.6,142484,0.0382023,5.01378,0.466765,17.302,8003.0,569.865
41,404.314,0.00510416,404.314,8.71768,0.84697,6.61762,45899.4,144275,0.043115,5.07631,0.468112,17.6308,8003.0,569.313
42,403.086,0.00511573,403.086,8.7039,0.846973,6.64059,46468.8,146060,0.039305,5.13876,0.466844,17.6379,8003.0,567.869
43,399.606,0.00523148,399.606,8.73809,0.847008,6.68686,47036.6,147839,0.039305,5.20104,0.468053,17.2562,8003.0,566.462
44,400.622,0.00511573,400.622,8.71081,0.846973,6.64162,47603.1,149620,0.0436155,5.26312,0.467257,17.591,8003.0,565.857