File: 2021pipeline/data_calibration_fsed.csv
,Capacity dV CCCT,Charge time dV CCCT,Energy dV CCCT,Entropy dV CCCT Shannon,Frechet Distance CC curve,Hausdorff Distance CC curve,Lagged Cumulated Discharge Capacity,Lagged Cumulated Discharge Energy,Lagged Pseudo Resistace,Lagged cycle time,Mean DV CCCV,Slope CCCV-CCCT,Group,Discharge_Q
0,575.323,0.00496528,575.323,8.69349,0.846925,6.4461,0.0,0.0,0.0,0.0,0.480619,18.1549,8004.0,734.076
1,567.157,0.00488425,567.157,8.64386,0.846898,6.40778,734.076,2300.32,0.0253385,0.0818945,0.479761,18.4472,8004.0,725.69
2,562.199,0.00483796,562.199,8.66888,0.846882,6.39464,1459.77,4574.21,0.0203258,0.16282,0.479035,18.6151,8004.0,720.521
3,558.499,0.00482639,558.499,8.64386,0.846878,6.39127,2180.29,6833.19,0.0197238,0.243175,0.477944,18.7507,8004.0,716.899
4,552.994,0.00478009,552.994,8.62205,0.846862,6.38177,2897.19,9082.29,0.0205093,0.323102,0.476109,18.8315,8004.0,711.609
5,549.109,0.00476851,549.109,8.60733,0.846858,6.38912,3608.79,11316.1,0.0190048,0.402414,0.474563,18.8855,8004.0,707.538
6,545.243,0.00475694,545.243,8.66534,0.846853,6.3846,4316.33,13537.9,0.0185042,0.481267,0.474172,18.9313,8004.0,703.367
7,541.127,0.00475694,541.127,8.64024,0.846853,6.40045,5019.7,15747.6,0.0179022,0.55966,0.472444,18.9565,8004.0,701.723
8,537.207,0.00472222,537.207,8.61102,0.846841,6.3649,5721.42,17953.1,0.0198643,0.63772,0.472169,19.0702,8004.0,698.006
9,533.914,0.00473379,533.914,8.62936,0.846845,6.39882,6419.43,20147.6,0.0187605,0.715337,0.470184,19.0405,8004.0,694.516
10,530.394,0.00471064,530.394,8.61839,0.846837,6.36923,7113.94,22332,0.0188618,0.792555,0.47041,19.1169,8004.0,690.917
11,527.124,0.00472226,527.124,8.59991,0.846841,6.38467,7804.86,24505.6,0.019062,0.86936,0.469604,19.1209,8004.0,687.189
12,522.991,0.00473383,522.991,8.62205,0.846845,6.3965,8492.05,26668.2,0.0196628,0.945737,0.469666,19.0489,8004.0,682.951
13,519.298,0.00473383,519.298,8.64746,0.846845,6.42435,9175,28818.2,0.019763,1.02163,0.467533,19.015,8004.0,678.974
14,515.39,0.00472228,515.39,8.61839,0.846841,6.38882,9853.98,30956.1,0.0212675,1.09707,0.468319,19.0445,8004.0,674.795
15,508.692,0.00478009,508.692,8.63662,0.846862,6.43588,10528.8,33081.8,0.0219695,1.17204,0.465869,18.9402,8004.0,667.089
16,501.064,0.00480324,501.064,8.633,0.84687,6.46794,11195.9,35185.3,0.024852,1.24614,0.464811,18.766,8004.0,659.506
17,497.787,0.00483796,497.787,8.64024,0.846882,6.48235,11855.4,37266.4,0.0250523,1.31935,0.465183,18.6729,8004.0,655.8
18,493.821,0.00486111,493.821,8.67948,0.84689,6.50965,12511.2,39337,0.0254708,1.39213,0.464332,18.543,8004.0,651.836
19,490.766,0.00483796,490.766,8.66534,0.846882,6.48112,13163,41396.1,0.0259582,1.46447,0.465342,18.582,8004.0,649.132
20,486.886,0.00489583,486.886,8.66534,0.846902,6.52596,13812.1,43446.5,0.0240533,1.53645,0.464371,18.3792,8004.0,644.828
21,484.417,0.00487268,484.417,8.65464,0.846894,6.50677,14457,45485,0.0271803,1.60797,0.463531,18.4745,8004.0,642.735
22,481.78,0.00491898,481.78,8.67243,0.84691,6.53673,15099.7,47516.4,0.025075,1.67921,0.462809,18.2766,8004.0,639.78
23,479.515,0.00493055,479.515,8.67243,0.846914,6.57974,15739.5,49540.1,0.027557,1.75014,0.462042,18.2581,8004.0,637.912
24,475.441,0.005,475.441,8.68299,0.846937,6.5847,16377.4,51557.1,0.0252503,1.82082,0.463901,18.0692,8004.0,632.844
25,473.348,0.0049537,473.348,8.65821,0.846921,6.57919,17010.2,53560.6,0.0296622,1.89096,0.461927,18.2054,8004.0,631.357
26,471.299,0.0049537,471.299,8.64746,0.846921,6.5491,17641.6,55558.2,0.026354,1.96088,0.464429,18.1973,8004.0,629.234
27,466.958,0.00505787,466.958,8.69,0.846955,6.62139,18270.8,57549.1,0.0264543,2.03056,0.464389,17.8154,8004.0,624.407
28,466.207,0.00501157,466.207,8.71081,0.84694,6.58059,18895.2,59527.9,0.031467,2.09973,0.464707,18.0595,8004.0,624.024
29,463.104,0.00499999,463.104,8.69697,0.846937,6.58848,19519.3,61504.3,0.0264543,2.1688,0.465249,17.9972,8004.0,621.041
30,459.599,0.00509259,459.599,8.73809,0.846966,6.64776,20140.3,63471.3,0.02775725,2.23752,0.464578,17.7178,8004.0,617.43
31,458.542,0.00502314,458.542,8.7039,0.846944,6.574,20757.7,65429,0.0324695,2.30585,0.466714,17.9702,8004.0,616.61
32,453.606,0.00510417,453.606,8.70044,0.84697,6.66047,21374.3,67382.5,0.0288598,2.37405,0.463905,17.6856,8004.0,610.01
33,451.732,0.00504629,451.732,8.69,0.846951,6.58489,21984.3,69319.7,0.0335615,2.44158,0.466386,17.8641,8004.0,609.085
34,445.993,0.00512731,445.993,8.72792,0.846977,6.63991,22593.4,71252.8,0.028247,2.50894,0.467216,17.5903,8004.0,606.842
35,445.393,0.00515046,445.393,8.73132,0.846984,6.66094,23200.3,73179.6,0.028749,2.5759,0.46569,17.5736,8004.0,602.143
36,444.567,0.00506944,444.567,8.71768,0.846959,6.60846,23802.4,75095.2,0.0343625,2.64251,0.46559,17.767,8004.0,602.259
37,442.94,0.00508101,442.94,8.72451,0.846963,6.62794,24404.7,77008.9,0.0289493,2.70908,0.465871,17.7503,8004.0,600.808
38,438.214,0.00515046,438.214,8.73132,0.846984,6.66872,25005.5,78917.1,0.0296503,2.77546,0.466796,17.4648,8004.0,596.552
39,437.204,0.00506945,437.204,8.69697,0.846959,6.59406,25602,80814.1,0.0346643,2.84137,0.467352,17.7275,8004.0,595.656
40,434.705,0.00506944,434.705,8.69697,0.846959,6.59341,26197.7,82706.4,0.0330275,2.90717,0.468178,17.7906,8004.0,593.665
41,432.65,0.00505786,432.65,8.69349,0.846955,6.60965,26791.4,84590.8,0.0323253,2.97269,0.4667,17.7839,8004.0,591.913
42,428.943,0.00513889,428.943,8.71768,0.846981,6.63595,27383.3,86469.1,0.0322252,3.03801,0.469073,17.5353,8004.0,588.273
43,428.313,0.00503472,428.313,8.71081,0.846948,6.5516,27971.5,88338.7,0.03784,3.10292,0.469736,17.8495,8004.0,587.816
44,424.63,0.00505787,424.63,8.69,0.846955,6.58998,28559.4,90203.7,0.0337283,3.16775,0.468206,17.8312,8004.0,584.527
45,422.56,0.00509259,422.56,8.70736,0.846966,6.62723,29143.9,92057.6,0.0337772,3.23218,0.468566,17.6707,8004.0,582.338
46,420.677,0.00504629,420.677,8.68299,0.846951,6.59493,29726.2,93903.2,0.0390355,3.29636,0.468566,17.8403,8004.0,581.234