File: 2021pipeline/data_train_fsed.csv
,Capacity dV CCCT,Charge time dV CCCT,Energy dV CCCT,Entropy dV CCCT Shannon,Frechet Distance CC curve,Hausdorff Distance CC curve,Lagged Cumulated Discharge Capacity,Lagged Cumulated Discharge Energy,Lagged Pseudo Resistace,Lagged cycle time,Mean DV CCCV,Slope CCCV-CCCT,Group,Discharge_Q
0,578.29,0.0049537,578.29,8.66534,0.846921,6.41894,0.0,0.0,0.0,0.0,0.482614,18.2203,8001.0,739.111
3,561.234,0.00486111,561.234,8.64024,0.84689,6.43804,2195.05,6876.37,0.0176018,0.244478,0.477485,18.4843,8001.0,722.843
6,550.424,0.00479166,550.424,8.60733,0.846866,6.37983,4351.24,13637.3,0.017542,0.484497,0.476452,18.8099,8001.0,711.62
9,539.725,0.00475694,539.725,8.62205,0.846853,6.39484,6478.24,20313.9,0.018243,0.721056,0.471789,18.9385,8001.0,702.545
12,531.074,0.00474541,531.074,8.61102,0.846849,6.39063,8576.48,26907.3,0.018745,0.954242,0.471049,19.0097,8001.0,693.267
15,520.234,0.00478009,520.234,8.62571,0.846862,6.45391,10647.7,33421.5,0.0195473,1.18433,0.466681,18.8554,8001.0,681.826
18,508.326,0.00486111,508.326,8.66178,0.84689,6.53325,12678.2,39816.8,0.0218218,1.40971,0.46347,18.5172,8001.0,669.732
21,500.28,0.00491898,500.28,8.65464,0.84691,6.56315,14679.3,46124,0.0227003,1.63167,0.463652,18.4056,8001.0,661.44
24,492.305,0.00498843,492.305,8.66888,0.846932,6.60882,16655.3,52355.1,0.021979,1.8507,0.462003,18.0536,8001.0,652.781
27,484.485,0.00506945,484.485,8.72792,0.846959,6.65893,18608.2,58517.2,0.0227708,2.06704,0.461647,17.7895,8001.0,645.022
30,478.323,0.00509259,478.323,8.72792,0.846966,6.65684,20539.5,64614.9,0.023673,2.28086,0.463365,17.7088,8001.0,638.773
33,471.542,0.00506944,471.542,8.69,0.846959,6.63092,22448.3,70645.6,0.0272255,2.49215,0.464048,17.75,8001.0,631.744
36,465.153,0.00509259,465.153,8.7039,0.846966,6.63794,24335,76612.7,0.0268238,2.70079,0.464566,17.6696,8001.0,625.258
39,459.02,0.00511574,459.02,8.72792,0.846973,6.65204,26204.3,82525.6,0.0279265,2.90749,0.464023,17.6289,8001.0,619.519
42,451.587,0.00518519,451.587,8.74147,0.846994,6.69339,28057.2,88380.2,0.0273888,3.11218,0.465796,17.3702,8001.0,612.744
45,441.94,0.00515046,441.94,8.70044,0.846984,6.66634,29891.1,94173.5,0.0298957,3.31462,0.465471,17.4636,8001.0,604.287
48,437.982,0.00516203,437.982,8.75154,0.846987,6.66915,31698.4,99884.1,0.0337535,3.51395,0.466591,17.5254,8001.0,599.862
51,431.808,0.00513888,431.808,8.7211,0.84698,6.6411,33490.7,105549,0.035458,3.71151,0.466926,17.5496,8001.0,594.468
54,426.463,0.00512731,426.463,8.7039,0.846977,6.65575,35268.5,111163,0.0365607,3.90734,0.466495,17.5735,8001.0,589.447
57,422.782,0.00512731,422.782,8.71425,0.846977,6.63925,37031.6,116728,0.0391715,4.10141,0.46737,17.6048,8001.0,585.746
60,418.272,0.00512731,418.272,8.72451,0.846977,6.64103,38782.8,122254,0.0405758,4.29406,0.468502,17.5346,8001.0,581.655
63,414.392,0.00516203,414.392,8.7039,0.846987,6.62911,40522.1,127749,0.04067225,4.48535,0.467928,17.5176,8001.0,577.589
66,407.628,0.0053125,407.628,8.76155,0.847032,6.75505,42249.2,133213,0.041775,4.6752,0.467375,16.9773,8001.0,573.098
69,406.162,0.00512731,406.162,8.7211,0.846977,6.61604,43969.3,138651,0.03606,4.86406,0.469296,17.5969,8001.0,570.437
72,401.842,0.00511573,401.842,8.69349,0.846973,6.65654,45675.8,144031,0.0377208,5.05137,0.467179,17.5585,8001.0,566.753
75,397.729,0.00511573,397.729,8.72451,0.846973,6.63383,47371.1,149372,0.0388245,5.23731,0.4676,17.6211,8001.0,563.046
78,573.327,0.005,573.327,8.67243,0.846936,6.49012,0.0,0.0,0.0,0.0,0.479533,17.9959,8002.0,734.819
81,557.619,0.00483796,557.619,8.64746,0.846882,6.40122,2183.6,6843.23,0.018801,0.242933,0.478445,18.5889,8002.0,719.216
84,545.991,0.00476851,545.991,8.63662,0.846858,6.37815,4328.52,13571.5,0.018162,0.48143,0.475569,18.8841,8002.0,708.062
87,537.489,0.00474536,537.489,8.59991,0.846849,6.38466,6443.94,20213.3,0.0184363,0.716608,0.472502,19.0098,8002.0,699.255
90,529.653,0.00473383,529.653,8.60733,0.846845,6.40274,8533.84,26779.7,0.0186365,0.948867,0.470795,19.0305,8002.0,691.201
93,518.79,0.00474537,518.79,8.59991,0.846849,6.4265,10598.8,33271.7,0.0192385,1.17825,0.466709,18.9845,8002.0,679.511
96,507.046,0.00482639,507.046,8.65821,0.846878,6.51498,12622.9,39641,0.024498,1.40298,0.462907,18.6665,8002.0,667.353
99,499.478,0.00486111,499.478,8.66178,0.84689,6.52471,14617.1,45918.1,0.024951,1.6242,0.4641,18.5335,8002.0,659.752
102,490.655,0.00494213,490.655,8.65821,0.846918,6.58072,16587.8,52122.8,0.0221078,1.84262,0.462278,18.1899,8002.0,650.389
105,482.635,0.00503472,482.635,8.70044,0.846948,6.65755,18534.9,58255.3,0.024281,2.05834,0.462405,17.88,8002.0,642.135
108,475.252,0.00505787,475.252,8.67243,0.846955,6.64409,20457.8,64315.3,0.025684,2.27122,0.462269,17.8616,8002.0,634.97
111,468.856,0.00504629,468.856,8.7211,0.846952,6.60969,22354.7,70297.2,0.0318305,2.48117,0.465397,17.8628,8002.0,628.12
114,462.484,0.00506944,462.484,8.69697,0.846959,6.62436,24230.1,76218.2,0.0311295,2.68855,0.466152,17.7815,8002.0,621.463
117,455.091,0.00506944,455.091,8.73809,0.846959,6.61444,26086.6,82081.2,0.0313297,2.89379,0.466091,17.742,8002.0,614.882
120,446.87,0.00513889,446.87,8.73471,0.846981,6.64798,27925.3,87882.6,0.0300245,3.09685,0.467375,17.5572,8002.0,607.282
123,410.244,0.00489583,410.244,8.64024,0.846902,6.50168,29742.8,93616.9,0.0312108,3.35967,0.467886,18.4269,8002.0,577.919
126,411.036,0.0049537,411.036,8.68299,0.846921,6.54493,31477.1,99020.7,0.0549513,3.54931,0.467177,18.1799,8002.0,581.026
129,407.554,0.00497684,407.554,8.7039,0.846929,6.54301,33213,104434,0.0509433,3.73896,0.467631,18.1196,8002.0,578.039
132,402.616,0.0049537,402.616,8.7039,0.846921,6.51744,34941,109820,0.050041,3.92771,0.468945,18.1718,8002.0,573
135,398.288,0.00496527,398.288,8.67596,0.846925,6.54525,36651.9,115156,0.05011,4.11442,0.468471,18.1295,8002.0,568.801
138,393.159,0.00496527,393.159,8.67948,0.846925,6.52325,38349.2,120451,0.0503103,4.29951,0.46932,18.1456,8002.0,563.836
141,391.956,0.00502314,391.956,8.71768,0.846944,6.58952,40038.5,125725,0.048676,4.48395,0.466355,17.9131,8002.0,562.128
144,385.604,0.00501157,385.604,8.70044,0.84694,6.5621,41713.2,130964,0.05549,4.6665,0.468171,17.9464,8002.0,556.888
147,389.29,0.00505786,389.29,8.70736,0.846955,6.61046,43328.6,135984,0.129244,4.84285,0.466481,17.7667,8002.0,562.234
150,574.521,0.00488426,574.521,8.67243,0.846898,6.38491,0.0,0.0,0.0,0.0,0.481261,18.5373,8003.0,735.12
153,558.815,0.00480324,558.815,8.65464,0.84687,6.40454,2184.54,6837.2,0.018565,0.243097,0.477387,18.716,8003.0,720.207
156,548.726,0.00473379,548.726,8.62936,0.846845,6.36322,4333.88,13568.7,0.017641,0.482154,0.475238,18.9899,8003.0,710.058
159,541.405,0.00472222,541.405,8.62936,0.846841,6.37525,6458.02,20227,0.01764,0.718363,0.472298,19.0957,8003.0,703.213
162,534.61,0.00468754,534.61,8.60733,0.846828,6.35615,8560.79,26823.1,0.01774,0.952079,0.471647,19.2025,8003.0,696.346
165,525.161,0.0046875,525.161,8.56605,0.846828,6.36788,10642.6,33356.2,0.0188428,1.18338,0.467715,19.1941,8003.0,686.404
168,514.666,0.00478009,514.666,8.61471,0.846862,6.46807,12688.3,39784,0.0207882,1.41053,0.463486,18.8818,8003.0,675.415
171,506.891,0.00478009,506.891,8.62936,0.846862,6.44738,14707,46129.4,0.0229973,1.63453,0.463564,18.8148,8003.0,667.987
174,499.295,0.00489583,499.295,8.68299,0.846902,6.51939,16703.4,52405.6,0.0208835,1.85587,0.462232,18.4364,8003.0,659.638
177,491.921,0.00496528,491.921,8.65464,0.846925,6.58472,18677.2,58613.2,0.022487,2.0746,0.462118,18.1228,8003.0,651.969
180,485.142,0.00503472,485.142,8.72451,0.846948,6.65136,20628.9,64753.6,0.0234895,2.29074,0.462236,17.8893,8003.0,645.093